# K      Ohm 
# Temperature    Resistance
300	1000.32
299	1000.38
298	1000.45
297	1000.51
296	1000.57
295	1000.63
294	1000.70
293	1000.76
292	1000.82
291	1000.89
290	1000.95
289	1001.02
288	1001.08
287	1001.15
286	1001.21
285	1001.28
284	1001.34
283	1001.41
282	1001.47
281	1001.54
280	1001.61
279	1001.68
278	1001.74
277	1001.81
276	1001.88
275	1001.95
274	1002.02
273	1002.09
272	1002.16
271	1002.23
270	1002.30
269	1002.37
268	1002.44
267	1002.51
266	1002.59
265	1002.66
264	1002.73
263	1002.80
262	1002.88
261	1002.95
260	1003.03
259	1003.10
258	1003.18
257	1003.25
256	1003.33
255	1003.40
254	1003.48
253	1003.56
252	1003.63
251	1003.71
250	1003.79
249	1003.87
248	1003.95
247	1004.03
246	1004.11
245	1004.19
244	1004.27
243	1004.35
242	1004.43
241	1004.51
240	1004.60
239	1004.68
238	1004.76
237	1004.85
236	1004.93
235	1005.02
234	1005.10
233	1005.19
232	1005.28
231	1005.36
230	1005.45
229	1005.54
228	1005.63
227	1005.72
226	1005.81
225	1005.90
224	1005.99
223	1006.08
222	1006.17
221	1006.26
220	1006.36
219	1006.45
218	1006.54
217	1006.64
216	1006.73
215	1006.83
214	1006.93
213	1007.02
212	1007.12
211	1007.22
210	1007.32
209	1007.42
208	1007.52
207	1007.62
206	1007.72
205	1007.82
204	1007.93
203	1008.03
202	1008.13
201	1008.24
200	1008.35
199	1008.45
198	1008.56
197	1008.67
196	1008.78
195	1008.89
194	1009.00
193	1009.11
192	1009.22
191	1009.33
190	1009.45
189	1009.56
188	1009.68
187	1009.79
186	1009.91
185	1010.03
184	1010.15
183	1010.26
182	1010.39
181	1010.51
180	1010.63
179	1010.75
178	1010.88
177	1011.00
176	1011.13
175	1011.25
174	1011.38
173	1011.51
172	1011.64
171	1011.77
170	1011.91
169	1012.04
168	1012.17
167	1012.31
166	1012.45
165	1012.58
164	1012.72
163	1012.86
162	1013.00
161	1013.15
160	1013.29
159	1013.44
158	1013.58
157	1013.73
156	1013.88
155	1014.03
154	1014.18
153	1014.33
152	1014.49
151	1014.65
150	1014.80
149	1014.96
148	1015.12
147	1015.28
146	1015.45
145	1015.61
144	1015.78
143	1015.95
142	1016.12
141	1016.29
140	1016.46
139	1016.64
138	1016.81
137	1016.99
136	1017.17
135	1017.36
134	1017.54
133	1017.73
132	1017.91
131	1018.11
130	1018.30
129	1018.49
128	1018.69
127	1018.89
126	1019.09
125	1019.29
124	1019.50
123	1019.71
122	1019.92
121	1020.13
120	1020.34
119	1020.56
118	1020.78
117	1021.01
116	1021.23
115	1021.46
114	1021.69
113	1021.93
112	1022.17
111	1022.41
110	1022.65
109	1022.90
108	1023.15
107	1023.40
106	1023.66
105	1023.92
104	1024.19
103	1024.46
102	1024.73
101	1025.00
100	1025.28
99	1025.57
98	1025.86
97	1026.15
96	1026.45
95	1026.75
94	1027.05
93	1027.37
92	1027.68
91	1028.00
90	1028.33
89	1028.66
88	1029.00
87	1029.34
86	1029.69
85	1030.05
84	1030.41
83	1030.78
82	1031.15
81	1031.54
80	1031.92
79	1032.32
78	1032.72
77	1033.14
76	1033.56
75	1033.98
74	1034.42
73	1034.87
72	1035.32
71	1035.79
70	1036.26
69	1036.75
68	1037.25
67	1037.76
66	1038.28
65	1038.81
64	1039.35
63	1039.91
62	1040.48
61	1041.07
60	1041.67
59	1042.29
58	1042.93
57	1043.58
56	1044.25
55	1044.94
54	1045.65
53	1046.38
52	1047.13
51	1047.91
50	1048.71
49	1049.54
48	1050.40
47	1051.28
46	1052.20
45	1053.15
44	1054.13
43	1055.16
42	1056.22
41	1057.32
40	1058.47
39	1059.67
38	1060.93
37	1062.23
36	1063.60
35	1065.04
34	1066.55
33	1068.13
32	1069.80
31	1071.57
30	1073.43
29	1075.41
28	1077.51
27	1079.75
26	1082.14
25	1084.70
24	1087.45
23	1090.42
22	1093.63
21	1097.13
20	1100.94
19	1104.94
18	1109.57
17	1114.74
16	1120.53
15	1127.06
14	1134.51
13	1143.05
12	1152.97
11	1164.61
10	1178.49
9	1195.31
8	1216.12
7	1242.56
6	1277.29
5	1325.01
4.9	1330.79
4.8	1336.79
4.7	1343.03
4.6	1349.53
4.5	1356.30
4.4	1363.35
4.3	1370.72
4.2	1378.41
4.1	1386.45
4	1394.87
3.9	1403.69
3.8	1412.95
3.7	1422.68
3.6	1432.91
3.5	1443.68
3.4	1455.05
3.3	1467.06
3.2	1479.78
3.1	1493.26
3	1507.58
2.9	1522.82
2.8	1539.09
2.7	1556.48
2.6	1575.12
2.5	1595.16
2.4	1616.77
2.3	1640.15
2.2	1665.53
2.1	1693.20
2	1723.48
1.9	1757.83
1.8	1793.33
1.7	1832.94
1.6	1877.43
1.5	1927.75
1.4	1985.13
1.3	2051.19
1.2	2128.07
1.1	2218.67
1	2327.06
0.95	2398.06
0.9	2484.00
0.85	2570.00
0.8	2622.00
0.75	2734.20
0.7	2890.00
0.65	3046.03
0.6	3208.57
0.55	3396.32
0.5	3628.00
0.495	3654.30
0.49	3681.24
0.485	3708.82
0.48	3737.05
0.475	3765.94
0.47	3795.50
0.465	3825.73
0.46	3856.65
0.455	3888.27
0.45	3920.59
0.445	3953.62
0.44	3987.36
0.435	4021.84
0.43	4057.05
0.425	4093.00
0.42	4129.71
0.415	4167.18
0.41	4205.42
0.405	4244.44
0.4	4284.24
0.395	4324.84
0.39	4366.24
0.385	4408.45
0.38	4451.49
0.375	4495.35
0.37	4540.05
0.365	4585.60
0.36	4632.00
0.355	4679.31
0.35	4727.74
0.345	4777.56
0.34	4829.04
0.335	4882.44
0.33	4938.02
0.325	4996.05
0.32	5056.80
0.315	5120.52
0.31	5187.48
0.305	5257.95
0.3	5332.18
0.295	5410.45
0.29	5493.02
0.285	5580.15
0.28	5672.11
0.275	5769.15
0.27	5871.56
0.265	5979.58
0.26	6093.48
0.255	6213.53
0.25	6340.00
0.245	6473.04
0.24	6612.39
0.235	6757.71
0.23	6908.63
0.225	7064.80
0.22	7225.85
0.215	7391.43
0.21	7561.18
0.205	7734.75
0.2	7911.77
0.195	8091.89
0.19	8274.76
0.185	8460.00
0.18	8648.22
0.175	8843.79
0.17	9052.06
0.165	9278.35
0.16	9528.00
0.155	9806.72
0.15	10121.7
0.145	10480.7
0.14	10891.1
0.135	11360.6
0.13	11896.9
0.125	12507.5
0.12	13200.0
0.115	13982.1
0.11	14861.2
0.105	15845.0
0.1	16941.0
0.099	17174.4
0.098	17412.6
0.097	17655.7
0.096	17903.7
0.095	18156.8
0.094	18415.1
0.093	18678.4
0.092	18947.0
0.091	19220.8
0.09	19500.0
0.089	19784.7
0.088	20075.2
0.087	20372.2
0.086	20676.2
0.085	20987.7
0.084	21307.2
0.083	21635.2
0.082	21972.3
0.081	22318.9
0.08	22675.7
0.079	23043.1
0.078	23421.7
0.077	23811.9
0.076	24214.3
0.075	24629.4
0.074	25057.8
0.073	25500.0
0.072	25956.4
0.071	26427.7
0.07	26914.2
0.069	27416.4
0.068	27934.8
0.067	28470.0
0.066	29023.7
0.065	29603.0
0.064	30216.4
0.063	30872.4
0.062	31579.3
0.061	32345.7
0.06	33180.0
0.059	34087.4
0.058	35060.7
0.057	36089.2
0.056	37162.5
0.055	38270.0
0.054	39405.3
0.053	40578.1
0.052	41802.2
0.051	43091.6
0.05	44460.0
0.049	45918.8
0.048	47469.9
0.047	49112.5
0.046	50846.1
0.045	52670.0
0.044	54589.4
0.043	56633.4
0.042	58836.6
0.041	61233.8
0.04	63860.0
0.039	66737.5
0.038	69839.5
0.037	73126.8
0.036	76560.0
0.035	80100.0
0.034	83730.0
0.033	87522.7
0.032	91573.4
0.031	95977.5
0.03	100830
0.029	106206
0.028	112100
0.027	118486
0.026	125338
0.025	132630
0.024	140327
0.023	148355
0.022	156632
0.021	165075
0.02	173600
